Time (s), AI0 (V) 
0.000000E+0,4.180462E+0
1.000000E-2,4.181120E+0
2.000000E-2,4.183422E+0
3.000000E-2,4.182436E+0
4.000000E-2,4.180462E+0
5.000000E-2,4.183094E+0
6.000000E-2,4.181120E+0
7.000000E-2,4.182436E+0
8.000000E-2,4.183751E+0
9.000000E-2,4.180462E+0
1.000000E-1,4.182765E+0
1.100000E-1,4.182436E+0
1.200000E-1,4.180791E+0
1.300000E-1,4.184409E+0
1.400000E-1,4.182107E+0
1.500000E-1,4.181778E+0
1.600000E-1,4.182765E+0
1.700000E-1,4.181449E+0
1.800000E-1,4.182765E+0
1.900000E-1,4.182436E+0
2.000000E-1,4.181120E+0
2.100000E-1,4.182107E+0
2.200000E-1,4.184080E+0
2.300000E-1,4.181120E+0
2.400000E-1,4.182436E+0
2.500000E-1,4.181120E+0
2.600000E-1,4.180791E+0
2.700000E-1,4.183422E+0
2.800000E-1,4.179147E+0
2.900000E-1,4.183751E+0
3.000000E-1,4.185396E+0
3.100000E-1,4.181120E+0
3.200000E-1,4.183751E+0
3.300000E-1,4.180791E+0
3.400000E-1,4.180462E+0
3.500000E-1,4.182107E+0
3.600000E-1,4.181778E+0
3.700000E-1,4.181778E+0
3.800000E-1,4.183094E+0
3.900000E-1,4.179805E+0
4.000000E-1,4.183422E+0
4.100000E-1,4.183751E+0
4.200000E-1,4.180791E+0
4.300000E-1,4.183422E+0
4.400000E-1,4.181778E+0
4.500000E-1,4.181778E+0
4.600000E-1,4.184409E+0
4.700000E-1,4.182436E+0
4.800000E-1,4.183094E+0
4.900000E-1,4.182436E+0
5.000000E-1,4.181778E+0
5.100000E-1,4.182436E+0
5.200000E-1,4.182436E+0
5.300000E-1,4.181449E+0
5.400000E-1,4.182436E+0
5.500000E-1,4.181120E+0
5.600000E-1,4.180134E+0
5.700000E-1,4.183422E+0
5.800000E-1,4.180462E+0
5.900000E-1,4.183751E+0
6.000000E-1,4.183094E+0
6.100000E-1,4.180791E+0
6.200000E-1,4.182765E+0
6.300000E-1,4.117316E+0
6.400000E-1,4.096924E+0
6.500000E-1,4.001547E+0
6.600000E-1,3.990035E+0
6.700000E-1,3.958133E+0
6.800000E-1,3.959120E+0
6.900000E-1,3.846969E+0
7.000000E-1,3.814080E+0
7.100000E-1,3.684497E+0
7.200000E-1,3.662462E+0
7.300000E-1,3.582871E+0
7.400000E-1,3.548008E+0
7.500000E-1,3.477626E+0
7.600000E-1,3.463813E+0
7.700000E-1,3.461840E+0
7.800000E-1,3.427635E+0
7.900000E-1,3.332586E+0
8.000000E-1,3.278648E+0
8.100000E-1,3.200373E+0
8.200000E-1,3.180311E+0
8.300000E-1,3.070133E+0
8.400000E-1,3.037573E+0
8.500000E-1,2.944169E+0
8.600000E-1,2.904373E+0
8.700000E-1,2.880364E+0
8.800000E-1,2.819520E+0
8.900000E-1,2.822151E+0
9.000000E-1,2.710987E+0
9.100000E-1,2.695529E+0
9.200000E-1,2.598178E+0
9.300000E-1,2.469912E+0
9.400000E-1,2.463005E+0
9.500000E-1,2.452810E+0
9.600000E-1,2.365983E+0
9.700000E-1,2.358090E+0
9.800000E-1,2.255806E+0
9.900000E-1,2.210419E+0
1.000000E+0,2.178846E+0
1.010000E+0,2.036109E+0
1.020000E+0,2.029202E+0
1.030000E+0,2.032162E+0
1.040000E+0,1.962767E+0
1.050000E+0,1.882847E+0
1.060000E+0,1.887451E+0
1.070000E+0,1.837132E+0
1.080000E+0,1.745372E+0
1.090000E+0,1.713141E+0
1.100000E+0,1.698341E+0
1.110000E+0,1.700314E+0
1.120000E+0,1.590137E+0
1.130000E+0,1.504297E+0
1.140000E+0,1.485880E+0
1.150000E+0,1.483249E+0
1.160000E+0,1.367809E+0
1.170000E+0,1.365178E+0
1.180000E+0,1.357943E+0
1.190000E+0,1.317489E+0
1.200000E+0,1.292823E+0
1.210000E+0,1.249081E+0
1.220000E+0,1.241845E+0
1.230000E+0,1.217836E+0
1.240000E+0,1.168503E+0
1.250000E+0,1.055037E+0
1.260000E+0,1.050104E+0
1.270000E+0,1.049775E+0
1.280000E+0,1.052735E+0
1.290000E+0,1.022806E+0
1.300000E+0,1.013926E+0
1.310000E+0,1.009322E+0
1.320000E+0,1.004389E+0
1.330000E+0,1.008006E+0
1.340000E+0,1.006362E+0
1.350000E+0,1.005704E+0
1.360000E+0,1.005375E+0
1.370000E+0,1.007020E+0
1.380000E+0,1.005046E+0
1.390000E+0,1.007678E+0
1.400000E+0,1.004718E+0
1.410000E+0,1.004718E+0
1.420000E+0,1.008664E+0
1.430000E+0,1.003073E+0
1.440000E+0,1.007349E+0
1.450000E+0,1.006691E+0
1.460000E+0,9.971531E-1
1.470000E+0,9.744599E-1
1.480000E+0,9.708422E-1
1.490000E+0,9.698555E-1
1.500000E+0,9.724866E-1
1.510000E+0,9.708422E-1
1.520000E+0,9.714999E-1
1.530000E+0,9.738021E-1
1.540000E+0,9.682111E-1
1.550000E+0,9.724866E-1
1.560000E+0,9.718288E-1
1.570000E+0,9.698555E-1
1.580000E+0,9.728155E-1
1.590000E+0,9.698555E-1
1.600000E+0,9.698555E-1
1.610000E+0,9.734733E-1
1.620000E+0,9.698555E-1
1.630000E+0,9.714999E-1
1.640000E+0,9.724866E-1
1.650000E+0,9.682111E-1
1.660000E+0,9.718288E-1
1.670000E+0,9.714999E-1
1.680000E+0,9.705133E-1
1.690000E+0,9.738021E-1
1.700000E+0,9.701844E-1
1.710000E+0,9.698555E-1
1.720000E+0,9.738021E-1
1.730000E+0,9.695266E-1
1.740000E+0,9.714999E-1
1.750000E+0,9.731444E-1
1.760000E+0,9.688688E-1
1.770000E+0,9.728155E-1
1.780000E+0,9.724866E-1
1.790000E+0,9.701844E-1
1.800000E+0,9.738021E-1
1.810000E+0,9.711710E-1
1.820000E+0,9.698555E-1
1.830000E+0,9.738021E-1
1.840000E+0,9.688688E-1
1.850000E+0,9.708422E-1
1.860000E+0,9.728155E-1
1.870000E+0,9.688688E-1
1.880000E+0,9.728155E-1
1.890000E+0,9.714999E-1
1.900000E+0,9.705133E-1
1.910000E+0,9.728155E-1
1.920000E+0,9.711710E-1
1.930000E+0,9.701844E-1
1.940000E+0,9.744599E-1
1.950000E+0,9.708422E-1
1.960000E+0,9.705133E-1
1.970000E+0,9.728155E-1
1.980000E+0,9.682111E-1
1.990000E+0,9.724866E-1
2.000000E+0,9.724866E-1
2.010000E+0,9.695266E-1
2.020000E+0,9.731444E-1
2.030000E+0,9.708422E-1
2.040000E+0,9.708422E-1
2.050000E+0,9.738021E-1
2.060000E+0,9.688688E-1
2.070000E+0,9.705133E-1
2.080000E+0,9.728155E-1
2.090000E+0,9.685400E-1
2.100000E+0,9.714999E-1
2.110000E+0,9.718288E-1
2.120000E+0,9.691977E-1
2.130000E+0,9.728155E-1
2.140000E+0,9.711710E-1
2.150000E+0,9.695266E-1
2.160000E+0,9.728155E-1
2.170000E+0,9.695266E-1
2.180000E+0,9.728155E-1
2.190000E+0,9.731444E-1
2.200000E+0,9.691977E-1
2.210000E+0,9.724866E-1
2.220000E+0,9.714999E-1
2.230000E+0,9.705133E-1
2.240000E+0,9.731444E-1
2.250000E+0,9.708422E-1
2.260000E+0,9.695266E-1
2.270000E+0,9.738021E-1
2.280000E+0,9.662377E-1
2.290000E+0,9.721577E-1
2.300000E+0,NaN
2.310000E+0,NaN
2.320000E+0,NaN
2.330000E+0,NaN
2.340000E+0,NaN
2.350000E+0,NaN
2.360000E+0,NaN
2.370000E+0,NaN
2.380000E+0,NaN
2.390000E+0,NaN
2.400000E+0,NaN
2.410000E+0,NaN
2.420000E+0,NaN
2.430000E+0,NaN
2.440000E+0,NaN
2.450000E+0,NaN
2.460000E+0,NaN
2.470000E+0,NaN
2.480000E+0,NaN
2.490000E+0,NaN
2.500000E+0,NaN
2.510000E+0,NaN
2.520000E+0,NaN
2.530000E+0,NaN
2.540000E+0,NaN
2.550000E+0,NaN
2.560000E+0,NaN
2.570000E+0,NaN
2.580000E+0,NaN
2.590000E+0,NaN
2.600000E+0,NaN
2.610000E+0,NaN
2.620000E+0,NaN
2.630000E+0,NaN
2.640000E+0,NaN
2.650000E+0,NaN
2.660000E+0,NaN
2.670000E+0,NaN
2.680000E+0,NaN
2.690000E+0,NaN
2.700000E+0,NaN
2.710000E+0,NaN
2.720000E+0,NaN
2.730000E+0,NaN
2.740000E+0,NaN
2.750000E+0,NaN
2.760000E+0,NaN
2.770000E+0,NaN
2.780000E+0,NaN
2.790000E+0,NaN
2.800000E+0,NaN
2.810000E+0,NaN
2.820000E+0,NaN
2.830000E+0,NaN
2.840000E+0,NaN
2.850000E+0,NaN
2.860000E+0,NaN
2.870000E+0,NaN
2.880000E+0,NaN
2.890000E+0,NaN
2.900000E+0,NaN
2.910000E+0,NaN
2.920000E+0,NaN
2.930000E+0,NaN
2.940000E+0,NaN
2.950000E+0,NaN
2.960000E+0,NaN
2.970000E+0,NaN
2.980000E+0,NaN
2.990000E+0,NaN
